File: data/dawn1_flight1_log/log_battery_status_1.csv
timestamp,voltage_v,voltage_filtered_v,current_a,current_filtered_a,current_average_a,discharged_mah,remaining,scale,time_remaining_s,temperature,voltage_cell_v[0],voltage_cell_v[1],voltage_cell_v[2],voltage_cell_v[3],voltage_cell_v[4],voltage_cell_v[5],voltage_cell_v[6],voltage_cell_v[7],voltage_cell_v[8],voltage_cell_v[9],voltage_cell_v[10],voltage_cell_v[11],voltage_cell_v[12],voltage_cell_v[13],max_cell_voltage_delta,custom_faults,average_power,available_energy,full_charge_capacity_wh,remaining_capacity_wh,design_capacity,nominal_voltage,capacity,cycle_count,average_time_to_empty,serial_number,manufacture_date,state_of_health,max_error,interface_error,faults,average_time_to_full,over_discharge_count,connected,cell_count,source,priority,id,is_powering_off,is_required,warning,mode
16808664,50.25,50.25,0.115906,0.115906,0.115906,0.339773,0.98,0.0,nan,23.35,50.25,0.0,0.0,0.0,0.0,0.0,0.0,0.0,0.0,0.0,0.0,0.0,0.0,0.0,0.0,0,0.0,0.0,0.0,0.0,0.0,0.0,0,0,0,0,0,0,0,0,0,0,0,1,1,1,0,125,0,0,0,0
20796809,50.25,50.25,0.116455,0.116455,0.116455,0.42719,0.98,0.0,nan,23.6,50.25,0.0,0.0,0.0,0.0,0.0,0.0,0.0,0.0,0.0,0.0,0.0,0.0,0.0,0.0,0,0.0,0.0,0.0,0.0,0.0,0.0,0,0,0,0,0,0,0,0,0,0,0,1,1,1,0,125,0,0,0,0
24585540,50.125,50.125,7.54297,7.54297,7.54297,0.6824837,0.96,0.0,nan,23.6,50.125,0.0,0.0,0.0,0.0,0.0,0.0,0.0,0.0,0.0,0.0,0.0,0.0,0.0,0.0,0,0.0,0.0,0.0,0.0,0.0,0.0,0,0,0,0,0,0,0,0,0,0,0,1,1,1,0,125,0,0,0,0
28374650,50.1875,50.1875,3.17383,3.17383,3.17383,1.071603,0.97,0.0,nan,23.6,50.1875,0.0,0.0,0.0,0.0,0.0,0.0,0.0,0.0,0.0,0.0,0.0,0.0,0.0,0.0,0,0.0,0.0,0.0,0.0,0.0,0.0,0,0,0,0,0,0,0,0,0,0,0,1,1,1,0,125,0,0,0,0
32163718,50.1875,50.1875,3.27539,3.27539,3.27539,1.45202,0.97,0.0,nan,23.6,50.1875,0.0,0.0,0.0,0.0,0.0,0.0,0.0,0.0,0.0,0.0,0.0,0.0,0.0,0.0,0,0.0,0.0,0.0,0.0,0.0,0.0,0,0,0,0,0,0,0,0,0,0,0,1,1,1,0,125,0,0,0,0
35951728,49.6875,49.6875,29.84375,29.84375,29.84375,2.417927,0.91,0.0,nan,23.6,49.6875,0.0,0.0,0.0,0.0,0.0,0.0,0.0,0.0,0.0,0.0,0.0,0.0,0.0,0.0,0,0.0,0.0,0.0,0.0,0.0,0.0,0,0,0,0,0,0,0,0,0,0,0,1,1,1,0,125,0,0,0,0
39740460,47.78125,47.78125,120.4375,120.4375,120.4375,13.9739,0.68,0.0,nan,24.1,47.78125,0.0,0.0,0.0,0.0,0.0,0.0,0.0,0.0,0.0,0.0,0.0,0.0,0.0,0.0,0,0.0,0.0,0.0,0.0,0.0,0.0,0,0,0,0,0,0,0,0,0,0,0,1,1,1,0,125,0,0,0,0
43529234,49.65625,49.65625,8.86719,8.86719,8.86719,21.6007,0.91,0.0,nan,26.35,49.65625,0.0,0.0,0.0,0.0,0.0,0.0,0.0,0.0,0.0,0.0,0.0,0.0,0.0,0.0,0,0.0,0.0,0.0,0.0,0.0,0.0,0,0,0,0,0,0,0,0,0,0,0,1,1,1,0,125,0,0,0,0
47318063,49.1875,49.1875,40.03125,40.03125,40.03125,23.8988,0.85,0.0,nan,26.85,49.1875,0.0,0.0,0.0,0.0,0.0,0.0,0.0,0.0,0.0,0.0,0.0,0.0,0.0,0.0,0,0.0,0.0,0.0,0.0,0.0,0.0,0,0,0,0,0,0,0,0,0,0,0,1,1,1,0,125,0,0,0,0
51107608,49.40625,49.40625,27.7344,27.7344,27.7344,27.0901,0.88,0.0,nan,26.85,49.40625,0.0,0.0,0.0,0.0,0.0,0.0,0.0,0.0,0.0,0.0,0.0,0.0,0.0,0.0,0,0.0,0.0,0.0,0.0,0.0,0.0,0,0,0,0,0,0,0,0,0,0,0,1,1,1,0,125,0,0,0,0
55096048,49.46875,49.46875,26.6719,26.6719,26.6719,28.9979,0.88,0.0,nan,26.6,49.46875,0.0,0.0,0.0,0.0,0.0,0.0,0.0,0.0,0.0,0.0,0.0,0.0,0.0,0.0,0,0.0,0.0,0.0,0.0,0.0,0.0,0,0,0,0,0,0,0,0,0,0,0,1,1,1,0,125,0,0,0,0
58884439,49.78125,49.78125,8.421875,8.421875,8.421875,31.3208,0.92,0.0,nan,26.35,49.78125,0.0,0.0,0.0,0.0,0.0,0.0,0.0,0.0,0.0,0.0,0.0,0.0,0.0,0.0,0,0.0,0.0,0.0,0.0,0.0,0.0,0,0,0,0,0,0,0,0,0,0,0,1,1,1,0,125,0,0,0,0
62672707,49.6875,49.6875,15.2969,15.2969,15.2969,33.8583,0.91,0.0,nan,26.1,49.6875,0.0,0.0,0.0,0.0,0.0,0.0,0.0,0.0,0.0,0.0,0.0,0.0,0.0,0.0,0,0.0,0.0,0.0,0.0,0.0,0.0,0,0,0,0,0,0,0,0,0,0,0,1,1,1,0,125,0,0,0,0
66461488,49.6875,49.6875,15.4297,15.4297,15.4297,36.03596,0.91,0.0,nan,25.85,49.6875,0.0,0.0,0.0,0.0,0.0,0.0,0.0,0.0,0.0,0.0,0.0,0.0,0.0,0.0,0,0.0,0.0,0.0,0.0,0.0,0.0,0,0,0,0,0,0,0,0,0,0,0,1,1,1,0,125,0,0,0,0
70250286,49.6875,49.6875,15.7656,15.7656,15.7656,39.077,0.91,0.0,nan,25.85,49.6875,0.0,0.0,0.0,0.0,0.0,0.0,0.0,0.0,0.0,0.0,0.0,0.0,0.0,0.0,0,0.0,0.0,0.0,0.0,0.0,0.0,0,0,0,0,0,0,0,0,0,0,0,1,1,1,0,125,0,0,0,0
74040225,49.75,49.75,12.2578,12.2578,12.2578,41.46059,0.92,0.0,nan,25.85,49.75,0.0,0.0,0.0,0.0,0.0,0.0,0.0,0.0,0.0,0.0,0.0,0.0,0.0,0.0,0,0.0,0.0,0.0,0.0,0.0,0.0,0,0,0,0,0,0,0,0,0,0,0,1,1,1,0,125,0,0,0,0
77827874,49.875,49.875,4.984375,4.984375,4.984375,43.51582,0.93,0.0,nan,25.85,49.875,0.0,0.0,0.0,0.0,0.0,0.0,0.0,0.0,0.0,0.0,0.0,0.0,0.0,0.0,0,0.0,0.0,0.0,0.0,0.0,0.0,0,0,0,0,0,0,0,0,0,0,0,1,1,1,0,125,0,0,0,0
81616658,49.59375,49.59375,21.4531,21.4531,21.4531,47.34719,0.9,0.0,nan,25.6,49.59375,0.0,0.0,0.0,0.0,0.0,0.0,0.0,0.0,0.0,0.0,0.0,0.0,0.0,0.0,0,0.0,0.0,0.0,0.0,0.0,0.0,0,0,0,0,0,0,0,0,0,0,0,1,1,1,0,125,0,0,0,0
85405445,49.75,49.75,10.1641,10.1641,10.1641,51.3946,0.92,0.0,nan,25.6,49.75,0.0,0.0,0.0,0.0,0.0,0.0,0.0,0.0,0.0,0.0,0.0,0.0,0.0,0.0,0,0.0,0.0,0.0,0.0,0.0,0.0,0,0,0,0,0,0,0,0,0,0,0,1,1,1,0,125,0,0,0,0
89393637,49.625,49.625,17.96875,17.96875,17.96875,54.35754,0.9,0.0,nan,25.6,49.625,0.0,0.0,0.0,0.0,0.0,0.0,0.0,0.0,0.0,0.0,0.0,0.0,0.0,0.0,0,0.0,0.0,0.0,0.0,0.0,0.0,0,0,0,0,0,0,0,0,0,0,0,1,1,1,0,125,0,0,0,0
93183420,49.65625,49.65625,18.15625,18.15625,18.15625,57.1293,0.9,0.0,nan,25.6,49.65625,0.0,0.0,0.0,0.0,0.0,0.0,0.0,0.0,0.0,0.0,0.0,0.0,0.0,0.0,0,0.0,0.0,0.0,0.0,0.0,0.0,0,0,0,0,0,0,0,0,0,0,0,1,1,1,0,125,0,0,0,0
96971938,49.65625,49.65625,16.84375,16.84375,16.84375,59.4983,0.91,0.0,nan,25.6,49.65625,0.0,0.0,0.0,0.0,0.0,0.0,0.0,0.0,0.0,0.0,0.0,0.0,0.0,0.0,0,0.0,0.0,0.0,0.0,0.0,0.0,0,0,0,0,0,0,0,0,0,0,0,1,1,1,0,125,0,0,0,0
100761062,49.84375,49.84375,7.43359,7.43359,7.43359,61.096,0.93,0.0,nan,25.6,49.84375,0.0,0.0,0.0,0.0,0.0,0.0,0.0,0.0,0.0,0.0,0.0,0.0,0.0,0.0,0,0.0,0.0,0.0,0.0,0.0,0.0,0,0,0,0,0,0,0,0,0,0,0,1,1,1,0,125,0,0,0,0
104548796,49.84375,49.84375,7.66016,7.66016,7.66016,63.26986,0.93,0.0,nan,25.6,49.84375,0.0,0.0,0.0,0.0,0.0,0.0,0.0,0.0,0.0,0.0,0.0,0.0,0.0,0.0,0,0.0,0.0,0.0,0.0,0.0,0.0,0,0,0,0,0,0,0,0,0,0,0,1,1,1,0,125,0,0,0,0
108337588,49.78125,49.78125,11.0781,11.0781,11.0781,65.53553,0.92,0.0,nan,25.35,49.78125,0.0,0.0,0.0,0.0,0.0,0.0,0.0,0.0,0.0,0.0,0.0,0.0,0.0,0.0,0,0.0,0.0,0.0,0.0,0.0,0.0,0,0,0,0,0,0,0,0,0,0,0,1,1,1,0,125,0,0,0,0
112126370,49.84375,49.84375,7.60156,7.60156,7.60156,67.51779,0.93,0.0,nan,25.35,49.84375,0.0,0.0,0.0,0.0,0.0,0.0,0.0,0.0,0.0,0.0,0.0,0.0,0.0,0.0,0,0.0,0.0,0.0,0.0,0.0,0.0,0,0,0,0,0,0,0,0,0,0,0,1,1,1,0,125,0,0,0,0
115915881,49.875,49.875,5.82422,5.82422,5.82422,69.61952,0.93,0.0,nan,25.35,49.875,0.0,0.0,0.0,0.0,0.0,0.0,0.0,0.0,0.0,0.0,0.0,0.0,0.0,0.0,0,0.0,0.0,0.0,0.0,0.0,0.0,0,0,0,0,0,0,0,0,0,0,0,1,1,1,0,125,0,0,0,0
119703941,49.9375,49.9375,3.234375,3.234375,3.234375,71.20932,0.94,0.0,nan,25.35,49.9375,0.0,0.0,0.0,0.0,0.0,0.0,0.0,0.0,0.0,0.0,0.0,0.0,0.0,0.0,0,0.0,0.0,0.0,0.0,0.0,0.0,0,0,0,0,0,0,0,0,0,0,0,1,1,1,0,125,0,0,0,0
123692129,49.96875,49.96875,1.54199,1.54199,1.54199,72.37105,0.94,0.0,nan,25.35,49.96875,0.0,0.0,0.0,0.0,0.0,0.0,0.0,0.0,0.0,0.0,0.0,0.0,0.0,0.0,0,0.0,0.0,0.0,0.0,0.0,0.0,0,0,0,0,0,0,0,0,0,0,0,1,1,1,0,125,0,0,0,0
127480918,50.0,50.0,0.119751,0.119751,0.119751,72.564,0.95,0.0,nan,25.35,50.0,0.0,0.0,0.0,0.0,0.0,0.0,0.0,0.0,0.0,0.0,0.0,0.0,0.0,0.0,0,0.0,0.0,0.0,0.0,0.0,0.0,0,0,0,0,0,0,0,0,0,0,0,1,1,1,0,125,0,0,0,0
131269919,50.03125,50.03125,0.116089,0.116089,0.116089,72.65746,0.95,0.0,nan,25.35,50.03125,0.0,0.0,0.0,0.0,0.0,0.0,0.0,0.0,0.0,0.0,0.0,0.0,0.0,0.0,0,0.0,0.0,0.0,0.0,0.0,0.0,0,0,0,0,0,0,0,0,0,0,0,1,1,1,0,125,0,0,0,0
135058488,50.03125,50.03125,0.116028,0.116028,0.116028,72.75105,0.95,0.0,nan,25.35,50.03125,0.0,0.0,0.0,0.0,0.0,0.0,0.0,0.0,0.0,0.0,0.0,0.0,0.0,0.0,0,0.0,0.0,0.0,0.0,0.0,0.0,0,0,0,0,0,0,0,0,0,0,0,1,1,1,0,125,0,0,0,0
138847988,50.03125,50.03125,0.1161499,0.1161499,0.1161499,72.84501,0.95,0.0,nan,25.1,50.03125,0.0,0.0,0.0,0.0,0.0,0.0,0.0,0.0,0.0,0.0,0.0,0.0,0.0,0.0,0,0.0,0.0,0.0,0.0,0.0,0.0,0,0,0,0,0,0,0,0,0,0,0,1,1,1,0,125,0,0,0,0
142636052,50.03125,50.03125,0.1159668,0.1159668,0.1159668,72.93906,0.95,0.0,nan,25.1,50.03125,0.0,0.0,0.0,0.0,0.0,0.0,0.0,0.0,0.0,0.0,0.0,0.0,0.0,0.0,0,0.0,0.0,0.0,0.0,0.0,0.0,0,0,0,0,0,0,0,0,0,0,0,1,1,1,0,125,0,0,0,0
146425156,50.0625,50.0625,0.116333,0.116333,0.116333,73.03367,0.95,0.0,nan,25.1,50.0625,0.0,0.0,0.0,0.0,0.0,0.0,0.0,0.0,0.0,0.0,0.0,0.0,0.0,0.0,0,0.0,0.0,0.0,0.0,0.0,0.0,0,0,0,0,0,0,0,0,0,0,0,1,1,1,0,125,0,0,0,0
150213682,50.0625,50.0625,0.116333,0.116333,0.116333,73.1286,0.95,0.0,nan,25.1,50.0625,0.0,0.0,0.0,0.0,0.0,0.0,0.0,0.0,0.0,0.0,0.0,0.0,0.0,0.0,0,0.0,0.0,0.0,0.0,0.0,0.0,0,0,0,0,0,0,0,0,0,0,0,1,1,1,0,125,0,0,0,0
154002670,50.0625,50.0625,0.116394,0.116394,0.116394,73.22405,0.95,0.0,nan,25.1,50.0625,0.0,0.0,0.0,0.0,0.0,0.0,0.0,0.0,0.0,0.0,0.0,0.0,0.0,0.0,0,0.0,0.0,0.0,0.0,0.0,0.0,0,0,0,0,0,0,0,0,0,0,0,1,1,1,0,125,0,0,0,0
157990686,50.0625,50.0625,0.115906,0.115906,0.115906,73.3241,0.95,0.0,nan,25.1,50.0625,0.0,0.0,0.0,0.0,0.0,0.0,0.0,0.0,0.0,0.0,0.0,0.0,0.0,0.0,0,0.0,0.0,0.0,0.0,0.0,0.0,0,0,0,0,0,0,0,0,0,0,0,1,1,1,0,125,0,0,0,0
161780089,50.0625,50.0625,0.115356,0.115356,0.115356,73.42156,0.95,0.0,nan,25.1,50.0625,0.0,0.0,0.0,0.0,0.0,0.0,0.0,0.0,0.0,0.0,0.0,0.0,0.0,0.0,0,0.0,0.0,0.0,0.0,0.0,0.0,0,0,0,0,0,0,0,0,0,0,0,1,1,1,0,125,0,0,0,0
165568146,50.0625,50.0625,0.115356,0.115356,0.115356,73.51776,0.95,0.0,nan,25.1,50.0625,0.0,0.0,0.0,0.0,0.0,0.0,0.0,0.0,0.0,0.0,0.0,0.0,0.0,0.0,0,0.0,0.0,0.0,0.0,0.0,0.0,0,0,0,0,0,0,0,0,0,0,0,1,1,1,0,125,0,0,0,0
169356918,50.0625,50.0625,0.115906,0.115906,0.115906,73.6146,0.95,0.0,nan,25.1,50.0625,0.0,0.0,0.0,0.0,0.0,0.0,0.0,0.0,0.0,0.0,0.0,0.0,0.0,0.0,0,0.0,0.0,0.0,0.0,0.0,0.0,0,0,0,0,0,0,0,0,0,0,0,1,1,1,0,125,0,0,0,0
173145703,50.0625,50.0625,0.116272,0.116272,0.116272,73.71153,0.95,0.0,nan,25.1,50.0625,0.0,0.0,0.0,0.0,0.0,0.0,0.0,0.0,0.0,0.0,0.0,0.0,0.0,0.0,0,0.0,0.0,0.0,0.0,0.0,0.0,0,0,0,0,0,0,0,0,0,0,0,1,1,1,0,125,0,0,0,0
176934500,50.0625,50.0625,0.115845,0.115845,0.115845,73.80881,0.95,0.0,nan,25.1,50.0625,0.0,0.0,0.0,0.0,0.0,0.0,0.0,0.0,0.0,0.0,0.0,0.0,0.0,0.0,0,0.0,0.0,0.0,0.0,0.0,0.0,0,0,0,0,0,0,0,0,0,0,0,1,1,1,0,125,0,0,0,0
180723988,50.0625,50.0625,0.1161499,0.1161499,0.1161499,73.90651,0.95,0.0,nan,25.1,50.0625,0.0,0.0,0.0,0.0,0.0,0.0,0.0,0.0,0.0,0.0,0.0,0.0,0.0,0.0,0,0.0,0.0,0.0,0.0,0.0,0.0,0,0,0,0,0,0,0,0,0,0,0,1,1,1,0,125,0,0,0,0
184512035,50.0625,50.0625,0.116638,0.116638,0.116638,74.00465,0.95,0.0,nan,25.1,50.0625,0.0,0.0,0.0,0.0,0.0,0.0,0.0,0.0,0.0,0.0,0.0,0.0,0.0,0.0,0,0.0,0.0,0.0,0.0,0.0,0.0,0,0,0,0,0,0,0,0,0,0,0,1,1,1,0,125,0,0,0,0
188301819,50.0625,50.0625,0.116577,0.116577,0.116577,74.10326,0.95,0.0,nan,24.85,50.0625,0.0,0.0,0.0,0.0,0.0,0.0,0.0,0.0,0.0,0.0,0.0,0.0,0.0,0.0,0,0.0,0.0,0.0,0.0,0.0,0.0,0,0,0,0,0,0,0,0,0,0,0,1,1,1,0,125,0,0,0,0
190295381,50.0625,50.0625,0.116272,0.116272,0.116272,74.15425,0.96,0.0,nan,24.85,50.0625,0.0,0.0,0.0,0.0,0.0,0.0,0.0,0.0,0.0,0.0,0.0,0.0,0.0,0.0,0,0.0,0.0,0.0,0.0,0.0,0.0,0,0,0,0,0,0,0,0,0,0,0,1,1,1,0,125,0,0,0,0